Gain (V/A)	Calibration: V/I(Ohm)	I0 (pA)	B/V (T/V)	B0(T)	OFFSET current (pA)	Sample area (mm^2)	Keithley averaging	Stepping mode	Reoffset	Window (s)	Stabilization time (s)	Reoffsetting time (s)
1000000000.000000	0.507596	1.000000	10.000000	0.000000	0.000000	0.000000	0.000000	0.000000				
T(K)	B(T)	I(pA)	t(s)	P(uC/m^2)								
4.51600	0.00686	0.02580	-0.02800	-0.00072
4.51600	0.00688	0.01290	0.07200	0.00057
4.51600	0.00686	-0.01830	2.19413	-0.03826
4.51600	0.01121	-0.00090	3.06618	-0.03904
4.51500	0.01161	-0.06580	3.11118	-0.04200
4.51500	0.01257	-0.05340	3.17218	-0.04526
4.51400	0.03741	-0.01940	4.42525	-0.06956
4.51400	0.03826	-0.00800	4.47526	-0.06996
4.51500	0.11611	-0.22330	7.01340	-0.56676
4.51500	0.11823	-0.23160	7.07740	-0.58158
4.51800	0.13209	-0.27100	7.17241	-0.02575
4.51800	0.13281	-0.12530	7.80445	-0.10494
4.51800	0.13314	-0.09010	7.87245	-0.11106
4.51700	0.00725	-0.04370	16.89697	-0.50540
4.51700	0.00717	-0.05680	16.97197	-0.50966
4.51700	0.00713	-0.00970	17.07198	-0.51063
4.51700	0.00717	-0.02610	17.17198	-0.51324
4.51700	0.00728	0.02050	17.27199	-0.51119
4.51700	0.00776	-0.01540	17.37199	-0.51273
4.51700	0.00863	-0.01130	17.47200	-0.51386
4.51700	0.00985	-0.07110	17.57201	-0.52097
4.51700	0.01061	0.00170	17.67201	-0.52080
4.51700	0.01203	-0.02040	17.77202	-0.52284
4.51700	0.01367	0.05210	17.87202	-0.51763
4.51700	0.01485	-0.01570	17.97203	-0.51920
4.51700	0.01666	0.00150	18.07203	-0.51905
4.51700	0.01860	-0.04900	18.17204	-0.52395
4.51700	0.01996	-0.00790	18.27205	-0.52474
4.51700	0.02207	-0.00090	18.37205	-0.52483
4.51700	0.02342	0.06900	18.47206	-0.51792
4.51700	0.02567	0.00930	18.57206	-0.51699
4.51700	0.02808	0.01430	18.67207	-0.51556
4.51700	0.03054	-0.05540	18.77207	-0.52110
4.51700	0.03224	0.00020	18.87208	-0.52108
4.51700	0.03503	-0.04910	18.97208	-0.52599
4.51700	0.03765	0.01510	19.07209	-0.52448
4.51600	0.04025	-0.05940	19.17210	-0.53042
4.51600	0.04213	-0.04200	19.27210	-0.53462
4.51600	0.04485	-0.11130	19.37211	-0.54575
4.51600	0.04677	-0.07500	19.47211	-0.55325
4.51400	0.05082	-0.11590	19.57212	-0.56484
4.51400	0.05276	-0.06640	19.67213	-0.57148
4.51300	0.05579	-0.09460	19.77213	-0.58094
4.51300	0.05900	-0.03280	19.87214	-0.58422
4.51100	0.06220	-0.10340	19.97214	-0.59456
4.51000	0.06320	-0.06810	20.07215	-0.60137
4.51000	0.06652	-0.12610	20.17215	-0.61398
4.51200	0.06971	-0.08920	20.27216	-0.62290
4.51200	0.07319	-0.18040	20.37217	-0.64094
4.51300	0.07562	-0.15760	20.47217	-0.65670
4.51300	0.07886	-0.23150	20.57218	-0.67986
4.51300	0.08105	-0.21320	20.67218	-0.70118
4.51400	0.08585	-0.23540	20.77219	-0.72472
4.51400	0.08808	-0.16930	20.87219	-0.74165
4.51400	0.09151	-0.23370	20.97220	-0.76502
4.51400	0.09505	-0.20870	21.07221	-0.78589
4.51400	0.09844	-0.24870	21.17221	-0.81076
4.51400	0.10065	-0.24750	21.27222	-0.83551
4.51400	0.10424	-0.31480	21.37222	-0.86699
4.51500	0.10778	-0.24030	21.47223	-0.89102
4.51500	0.11011	-0.27790	21.57223	-0.91882
4.51500	0.11373	-0.20370	21.67224	-0.93919
4.51500	0.11789	-0.26600	21.77225	-0.96579
4.51500	0.11984	-0.22150	21.87225	-0.98794
4.51500	0.12177	-0.25970	21.97226	-1.01391
4.51500	0.12422	-0.16990	22.07226	-1.03090
4.51600	0.12571	-0.17000	22.17227	-1.04790
4.51500	0.12822	-0.06630	22.27227	-1.05453
4.51600	0.12921	-0.08410	22.37228	-1.06294
4.51600	0.12991	-0.06950	22.47229	-1.06989
4.51600	0.13066	-0.12790	22.57229	-1.08268
4.51500	0.13119	-0.04350	22.67230	-1.08703
4.51600	0.13125	-0.04560	22.77230	-1.09159
4.51500	0.13119	0.01380	22.87231	-1.09021
4.51600	0.13086	0.00250	22.97231	-1.08996
4.51500	0.13029	0.04240	23.07232	-1.08572
4.51500	0.12976	0.02850	23.17233	-1.08287
4.51500	0.12872	0.08740	23.27233	-1.07413
4.51600	0.12792	0.03330	23.37234	-1.07080
4.51600	0.12644	0.11250	23.47234	-1.05955
4.51600	0.12475	0.09920	23.57235	-1.04962
4.51600	0.12356	0.15390	23.67235	-1.03423
4.51600	0.12148	0.11450	23.77236	-1.02278
4.51600	0.11943	0.16640	23.87237	-1.00614
4.51600	0.11811	0.11990	23.97237	-0.99415
4.51600	0.11589	0.18360	24.07238	-0.97579
4.51600	0.11353	0.16120	24.17238	-0.95967
4.51500	0.11100	0.22600	24.27239	-0.93707
4.51600	0.10926	0.18070	24.37239	-0.91899
4.51600	0.10671	0.17250	24.47240	-0.90174
4.51600	0.10493	0.11820	24.57241	-0.88992
4.51600	0.10204	0.16190	24.67241	-0.87373
4.51500	0.09910	0.13290	24.77242	-0.86044
4.51500	0.09717	0.19660	24.87242	-0.84078
4.51500	0.09395	0.14470	24.97243	-0.82631
4.51600	0.09089	0.19970	25.07243	-0.80633
4.51600	0.08886	0.16540	25.17244	-0.78979
4.51600	0.08558	0.20860	25.27245	-0.76893
4.51600	0.08236	0.16930	25.37245	-0.75200
4.51600	0.08017	0.19550	25.47246	-0.73245
4.51600	0.07698	0.16040	25.57246	-0.71641
4.51600	0.07386	0.20420	25.67247	-0.69599
4.51600	0.07154	0.11950	25.77247	-0.68404
4.51700	0.06803	0.14070	25.87248	-0.66996
4.51900	0.06471	0.09270	25.97249	-0.66069
4.52200	0.06249	0.16010	26.07249	0.01601
